Wavelength[nm],Average,1
320.469,5400.0,5400
323.166,5297.0,5297
325.861,5354.0,5354
328.553,5273.0,5273
331.243,5403.0,5403
333.930,5246.0,5246
336.615,5297.0,5297
339.297,5360.0,5360
341.976,5272.0,5272
344.653,5260.0,5260
347.327,5406.0,5406
349.998,5275.0,5275
352.666,5333.0,5333
355.331,5269.0,5269
357.994,5361.0,5361
360.653,5418.0,5418
363.309,5243.0,5243
365.962,5309.0,5309
368.612,5331.0,5331
371.259,5327.0,5327
373.903,5382.0,5382
376.543,5253.0,5253
379.180,5244.0,5244
381.813,5330.0,5330
384.443,5248.0,5248
387.070,5353.0,5353
389.693,5435.0,5435
392.313,5279.0,5279
394.929,5363.0,5363
397.541,5333.0,5333
400.150,5372.0,5372
402.755,5369.0,5369
405.356,5310.0,5310
407.954,5277.0,5277
410.547,5366.0,5366
413.137,5203.0,5203
415.723,5276.0,5276
418.305,5298.0,5298
420.883,5368.0,5368
423.457,5437.0,5437
426.027,5261.0,5261
428.593,5324.0,5324
431.154,5357.0,5357
433.712,5219.0,5219
436.265,5450.0,5450
438.814,5340.0,5340
441.359,5346.0,5346
443.900,5439.0,5439
446.436,5260.0,5260
448.967,5267.0,5267
451.495,5392.0,5392
454.018,5230.0,5230
456.536,5297.0,5297
459.050,5261.0,5261
461.559,5272.0,5272
464.064,5370.0,5370
466.564,5207.0,5207
469.060,5338.0,5338
471.551,5370.0,5370
474.037,5329.0,5329
476.518,5420.0,5420
478.995,5302.0,5302
481.467,5290.0,5290
483.934,5396.0,5396
486.396,5252.0,5252
488.853,5279.0,5279
491.305,5386.0,5386
493.753,5226.0,5226
496.195,5257.0,5257
498.632,5239.0,5239
501.065,5284.0,5284
503.492,5482.0,5482
505.914,5295.0,5295
508.332,5312.0,5312
510.743,5393.0,5393
513.150,5207.0,5207
515.552,5414.0,5414
517.948,5407.0,5407
520.339,5291.0,5291
522.725,5364.0,5364
525.106,5365.0,5365
527.481,5350.0,5350
529.851,5448.0,5448
532.216,5244.0,5244
534.575,5408.0,5408
536.929,5366.0,5366
539.277,5300.0,5300
541.620,5436.0,5436
543.957,5317.0,5317
546.289,5357.0,5357
548.616,5423.0,5423
550.936,5202.0,5202
553.252,5412.0,5412
555.561,5309.0,5309
557.865,5293.0,5293
560.164,5321.0,5321
562.457,5281.0,5281
564.744,5331.0,5331
567.025,5413.0,5413
569.301,5287.0,5287
571.571,5386.0,5386
573.835,5339.0,5339
576.093,5320.0,5320
578.346,5469.0,5469
580.593,5305.0,5305
582.834,5251.0,5251
585.069,5360.0,5360
587.299,5252.0,5252
589.522,5426.0,5426
591.740,5324.0,5324
593.952,5294.0,5294
596.158,5283.0,5283
598.358,5334.0,5334
600.551,5307.0,5307
602.739,5362.0,5362
604.922,5258.0,5258
607.098,5349.0,5349
609.268,5292.0,5292
611.432,5369.0,5369
613.590,5458.0,5458
615.742,5255.0,5255
617.887,5358.0,5358
620.027,5406.0,5406
622.161,5250.0,5250
624.289,5379.0,5379
626.410,5328.0,5328
628.526,5224.0,5224
630.635,5375.0,5375
632.738,5383.0,5383
634.835,5325.0,5325
636.926,5345.0,5345
639.011,5251.0,5251
641.089,5456.0,5456
643.162,5338.0,5338
645.228,5283.0,5283
647.288,5397.0,5397
649.341,5323.0,5323
651.389,5390.0,5390
653.430,5399.0,5399
655.465,5317.0,5317
657.494,5388.0,5388
659.516,5372.0,5372
661.532,5330.0,5330
663.542,5404.0,5404
665.546,5297.0,5297
667.543,5314.0,5314
669.535,5390.0,5390
671.519,5242.0,5242
673.498,5487.0,5487
675.470,5404.0,5404
677.436,5300.0,5300
679.396,5404.0,5404
681.349,5324.0,5324
683.296,5299.0,5299
685.236,5414.0,5414
687.171,5297.0,5297
689.099,5453.0,5453
691.020,5337.0,5337
692.935,5409.0,5409
694.844,5408.0,5408
696.747,5305.0,5305
698.643,5403.0,5403
700.533,5491.0,5491
702.416,5240.0,5240
704.293,5370.0,5370
706.164,5389.0,5389
708.029,5263.0,5263
709.887,5504.0,5504
711.738,5347.0,5347
713.584,5327.0,5327
715.423,5379.0,5379
717.255,5291.0,5291
719.082,5385.0,5385
720.901,5260.0,5260
722.715,5287.0,5287
724.522,5285.0,5285
726.323,5302.0,5302
728.117,5414.0,5414
729.905,5359.0,5359
731.687,5286.0,5286
733.462,5341.0,5341
735.232,5284.0,5284
736.994,5308.0,5308
738.751,5424.0,5424
740.501,5258.0,5258
742.244,5318.0,5318
743.982,5387.0,5387
745.713,5357.0,5357
747.437,5431.0,5431
749.156,5356.0,5356
750.868,5309.0,5309
752.573,5403.0,5403
754.273,5297.0,5297
755.966,5304.0,5304
757.653,5341.0,5341
759.333,5178.0,5178
761.008,5376.0,5376
762.676,5331.0,5331
764.337,5315.0,5315
765.993,5362.0,5362
767.642,5275.0,5275
769.285,5354.0,5354
770.922,5343.0,5343
772.552,5168.0,5168
774.176,5410.0,5410
775.795,5304.0,5304
777.406,5349.0,5349
779.012,5335.0,5335
780.611,5345.0,5345
782.205,5332.0,5332
783.792,5365.0,5365
785.373,5216.0,5216
786.947,5361.0,5361
788.516,5299.0,5299
790.078,5300.0,5300
791.635,5331.0,5331
793.185,5359.0,5359
794.729,5324.0,5324
796.267,5403.0,5403
797.799,5252.0,5252
799.325,5310.0,5310
800.844,5330.0,5330
802.358,5257.0,5257
803.866,5316.0,5316
805.368,5299.0,5299
806.863,5307.0,5307
808.353,5504.0,5504
809.836,5231.0,5231
811.314,5324.0,5324
812.786,5370.0,5370
814.252,5356.0,5356
815.711,5429.0,5429
817.165,5304.0,5304
818.613,5243.0,5243
820.055,5331.0,5331
821.491,5195.0,5195
822.922,5482.0,5482
824.346,5338.0,5338
825.765,5366.0,5366
827.178,5454.0,5454
828.585,5309.0,5309
829.986,5359.0,5359
831.381,5408.0,5408
832.771,5265.0,5265
834.155,5364.0,5364
835.533,5403.0,5403
836.906,5330.0,5330
838.272,5445.0,5445
839.633,5341.0,5341
840.989,5378.0,5378
842.339,5460.0,5460
843.683,5378.0,5378
845.021,5337.0,5337
846.354,5392.0,5392
847.682,5355.0,5355
849.004,5492.0,5492
850.320,5413.0,5413
851.631,5311.0,5311
852.936,5444.0,5444
854.236,5308.0,5308
855.530,5456.0,5456
856.819,5414.0,5414
858.102,5284.0,5284
859.380,5503.0,5503
860.653,5375.0,5375
861.920,5376.0,5376
863.182,5503.0,5503
864.439,5319.0,5319
865.690,5368.0,5368
866.936,5398.0,5398
868.177,5308.0,5308
869.412,5493.0,5493
870.642,5297.0,5297
871.867,5334.0,5334
873.087,5465.0,5465
874.302,5379.0,5379
875.512,5467.0,5467
876.716,5362.0,5362
877.916,5306.0,5306
879.110,5412.0,5412
880.299,5397.0,5397
881.483,5327.0,5327
882.663,5410.0,5410
883.837,5287.0,5287
885.006,5485.0,5485
886.170,5426.0,5426
887.330,5361.0,5361
888.484,5461.0,5461
