Wavelength[nm],Average,1
320.469,5419.0,5419
323.166,5344.0,5344
325.861,5357.0,5357
328.553,5282.0,5282
331.243,5446.0,5446
333.930,5320.0,5320
336.615,5297.0,5297
339.297,5395.0,5395
341.976,5264.0,5264
344.653,5322.0,5322
347.327,5377.0,5377
349.998,5247.0,5247
352.666,5357.0,5357
355.331,5305.0,5305
357.994,5342.0,5342
360.653,5387.0,5387
363.309,5255.0,5255
365.962,5343.0,5343
368.612,5314.0,5314
371.259,5297.0,5297
373.903,5457.0,5457
376.543,5256.0,5256
379.180,5277.0,5277
381.813,5364.0,5364
384.443,5207.0,5207
387.070,5345.0,5345
389.693,5467.0,5467
392.313,5289.0,5289
394.929,5391.0,5391
397.541,5298.0,5298
400.150,5369.0,5369
402.755,5360.0,5360
405.356,5322.0,5322
407.954,5331.0,5331
410.547,5330.0,5330
413.137,5303.0,5303
415.723,5349.0,5349
418.305,5455.0,5455
420.883,5484.0,5484
423.457,5735.0,5735
426.027,5690.0,5690
428.593,6071.0,6071
431.154,6540.0,6540
433.712,6894.0,6894
436.265,7923.0,7923
438.814,9213.0,9213
441.359,10952.0,10952
443.900,13611.0,13611
446.436,17335.0,17335
448.967,22259.0,22259
451.495,29384.0,29384
454.018,36964.0,36964
456.536,44833.0,44833
459.050,52051.0,52051
461.559,56319.0,56319
464.064,58817.0,58817
466.564,58163.0,58163
469.060,54301.0,54301
471.551,48480.0,48480
474.037,42156.0,42156
476.518,36512.0,36512
478.995,31423.0,31423
481.467,26880.0,26880
483.934,23207.0,23207
486.396,19458.0,19458
488.853,16788.0,16788
491.305,14435.0,14435
493.753,12493.0,12493
496.195,10991.0,10991
498.632,9736.0,9736
501.065,8900.0,8900
503.492,8282.0,8282
505.914,7501.0,7501
508.332,7033.0,7033
510.743,6758.0,6758
513.150,6292.0,6292
515.552,6227.0,6227
517.948,6041.0,6041
520.339,5850.0,5850
522.725,5864.0,5864
525.106,5673.0,5673
527.481,5621.0,5621
529.851,5630.0,5630
532.216,5486.0,5486
534.575,5539.0,5539
536.929,5474.0,5474
539.277,5410.0,5410
541.620,5522.0,5522
543.957,5428.0,5428
546.289,5397.0,5397
548.616,5497.0,5497
550.936,5288.0,5288
553.252,5427.0,5427
555.561,5360.0,5360
557.865,5359.0,5359
560.164,5357.0,5357
562.457,5329.0,5329
564.744,5340.0,5340
567.025,5427.0,5427
569.301,5248.0,5248
571.571,5340.0,5340
573.835,5324.0,5324
576.093,5321.0,5321
578.346,5452.0,5452
580.593,5283.0,5283
582.834,5306.0,5306
585.069,5382.0,5382
587.299,5243.0,5243
589.522,5425.0,5425
591.740,5335.0,5335
593.952,5355.0,5355
596.158,5317.0,5317
598.358,5341.0,5341
600.551,5366.0,5366
602.739,5374.0,5374
604.922,5283.0,5283
607.098,5324.0,5324
609.268,5314.0,5314
611.432,5351.0,5351
613.590,5455.0,5455
615.742,5199.0,5199
617.887,5324.0,5324
620.027,5483.0,5483
622.161,5260.0,5260
624.289,5398.0,5398
626.410,5269.0,5269
628.526,5255.0,5255
630.635,5431.0,5431
632.738,5357.0,5357
634.835,5330.0,5330
636.926,5361.0,5361
639.011,5225.0,5225
641.089,5428.0,5428
643.162,5400.0,5400
645.228,5349.0,5349
647.288,5436.0,5436
649.341,5364.0,5364
651.389,5405.0,5405
653.430,5384.0,5384
655.465,5330.0,5330
657.494,5364.0,5364
659.516,5371.0,5371
661.532,5386.0,5386
663.542,5461.0,5461
665.546,5328.0,5328
667.543,5296.0,5296
669.535,5384.0,5384
671.519,5252.0,5252
673.498,5505.0,5505
675.470,5368.0,5368
677.436,5317.0,5317
679.396,5409.0,5409
681.349,5328.0,5328
683.296,5343.0,5343
685.236,5455.0,5455
687.171,5341.0,5341
689.099,5507.0,5507
691.020,5342.0,5342
692.935,5366.0,5366
694.844,5427.0,5427
696.747,5310.0,5310
698.643,5349.0,5349
700.533,5530.0,5530
702.416,5335.0,5335
704.293,5367.0,5367
706.164,5330.0,5330
708.029,5328.0,5328
709.887,5465.0,5465
711.738,5330.0,5330
713.584,5399.0,5399
715.423,5445.0,5445
717.255,5285.0,5285
719.082,5459.0,5459
720.901,5338.0,5338
722.715,5346.0,5346
724.522,5333.0,5333
726.323,5318.0,5318
728.117,5385.0,5385
729.905,5393.0,5393
731.687,5324.0,5324
733.462,5423.0,5423
735.232,5348.0,5348
736.994,5388.0,5388
738.751,5446.0,5446
740.501,5339.0,5339
742.244,5355.0,5355
743.982,5414.0,5414
745.713,5344.0,5344
747.437,5420.0,5420
749.156,5381.0,5381
750.868,5322.0,5322
752.573,5498.0,5498
754.273,5319.0,5319
755.966,5361.0,5361
757.653,5336.0,5336
759.333,5266.0,5266
761.008,5487.0,5487
762.676,5360.0,5360
764.337,5371.0,5371
765.993,5401.0,5401
767.642,5337.0,5337
769.285,5347.0,5347
770.922,5402.0,5402
772.552,5269.0,5269
774.176,5374.0,5374
775.795,5288.0,5288
777.406,5357.0,5357
779.012,5378.0,5378
780.611,5352.0,5352
782.205,5336.0,5336
783.792,5363.0,5363
785.373,5287.0,5287
786.947,5386.0,5386
788.516,5313.0,5313
790.078,5290.0,5290
791.635,5371.0,5371
793.185,5323.0,5323
794.729,5326.0,5326
796.267,5331.0,5331
797.799,5244.0,5244
799.325,5313.0,5313
800.844,5254.0,5254
802.358,5292.0,5292
803.866,5312.0,5312
805.368,5343.0,5343
806.863,5245.0,5245
808.353,5435.0,5435
809.836,5272.0,5272
811.314,5336.0,5336
812.786,5270.0,5270
814.252,5329.0,5329
815.711,5427.0,5427
817.165,5272.0,5272
818.613,5245.0,5245
820.055,5367.0,5367
821.491,5200.0,5200
822.922,5403.0,5403
824.346,5323.0,5323
825.765,5378.0,5378
827.178,5411.0,5411
828.585,5304.0,5304
829.986,5354.0,5354
831.381,5409.0,5409
832.771,5252.0,5252
834.155,5414.0,5414
835.533,5377.0,5377
836.906,5313.0,5313
838.272,5417.0,5417
839.633,5326.0,5326
840.989,5333.0,5333
842.339,5432.0,5432
843.683,5350.0,5350
845.021,5343.0,5343
846.354,5355.0,5355
847.682,5328.0,5328
849.004,5433.0,5433
850.320,5430.0,5430
851.631,5311.0,5311
852.936,5443.0,5443
854.236,5299.0,5299
855.530,5476.0,5476
856.819,5435.0,5435
858.102,5369.0,5369
859.380,5443.0,5443
860.653,5338.0,5338
861.920,5370.0,5370
863.182,5482.0,5482
864.439,5190.0,5190
865.690,5339.0,5339
866.936,5359.0,5359
868.177,5329.0,5329
869.412,5521.0,5521
870.642,5311.0,5311
871.867,5310.0,5310
873.087,5480.0,5480
874.302,5346.0,5346
875.512,5419.0,5419
876.716,5336.0,5336
877.916,5363.0,5363
879.110,5468.0,5468
880.299,5323.0,5323
881.483,5333.0,5333
882.663,5406.0,5406
883.837,5295.0,5295
885.006,5499.0,5499
886.170,5443.0,5443
887.330,5365.0,5365
888.484,5409.0,5409
