Wavelength[nm],Average,1
320.469,5424.0,5424
323.166,5377.0,5377
325.861,5404.0,5404
328.553,5235.0,5235
331.243,5382.0,5382
333.930,5290.0,5290
336.615,5324.0,5324
339.297,5374.0,5374
341.976,5239.0,5239
344.653,5278.0,5278
347.327,5383.0,5383
349.998,5275.0,5275
352.666,5346.0,5346
355.331,5281.0,5281
357.994,5305.0,5305
360.653,5443.0,5443
363.309,5277.0,5277
365.962,5333.0,5333
368.612,5363.0,5363
371.259,5321.0,5321
373.903,5415.0,5415
376.543,5335.0,5335
379.180,5343.0,5343
381.813,5397.0,5397
384.443,5285.0,5285
387.070,5334.0,5334
389.693,5493.0,5493
392.313,5312.0,5312
394.929,5317.0,5317
397.541,5358.0,5358
400.150,5408.0,5408
402.755,5414.0,5414
405.356,5305.0,5305
407.954,5375.0,5375
410.547,5293.0,5293
413.137,5285.0,5285
415.723,5328.0,5328
418.305,5264.0,5264
420.883,5326.0,5326
423.457,5439.0,5439
426.027,5302.0,5302
428.593,5390.0,5390
431.154,5321.0,5321
433.712,5288.0,5288
436.265,5490.0,5490
438.814,5337.0,5337
441.359,5345.0,5345
443.900,5403.0,5403
446.436,5306.0,5306
448.967,5338.0,5338
451.495,5379.0,5379
454.018,5267.0,5267
456.536,5386.0,5386
459.050,5326.0,5326
461.559,5278.0,5278
464.064,5364.0,5364
466.564,5287.0,5287
469.060,5323.0,5323
471.551,5308.0,5308
474.037,5283.0,5283
476.518,5467.0,5467
478.995,5318.0,5318
481.467,5367.0,5367
483.934,5353.0,5353
486.396,5293.0,5293
488.853,5290.0,5290
491.305,5412.0,5412
493.753,5221.0,5221
496.195,5357.0,5357
498.632,5307.0,5307
501.065,5239.0,5239
503.492,5394.0,5394
505.914,5271.0,5271
508.332,5256.0,5256
510.743,5389.0,5389
513.150,5152.0,5152
515.552,5389.0,5389
517.948,5411.0,5411
520.339,5229.0,5229
522.725,5342.0,5342
525.106,5316.0,5316
527.481,5324.0,5324
529.851,5396.0,5396
532.216,5233.0,5233
534.575,5387.0,5387
536.929,5290.0,5290
539.277,5231.0,5231
541.620,5393.0,5393
543.957,5274.0,5274
546.289,5325.0,5325
548.616,5405.0,5405
550.936,5261.0,5261
553.252,5348.0,5348
555.561,5293.0,5293
557.865,5240.0,5240
560.164,5307.0,5307
562.457,5230.0,5230
564.744,5250.0,5250
567.025,5360.0,5360
569.301,5288.0,5288
571.571,5354.0,5354
573.835,5291.0,5291
576.093,5217.0,5217
578.346,5428.0,5428
580.593,5257.0,5257
582.834,5293.0,5293
585.069,5369.0,5369
587.299,5251.0,5251
589.522,5374.0,5374
591.740,5272.0,5272
593.952,5283.0,5283
596.158,5252.0,5252
598.358,5271.0,5271
600.551,5320.0,5320
602.739,5354.0,5354
604.922,5213.0,5213
607.098,5268.0,5268
609.268,5254.0,5254
611.432,5341.0,5341
613.590,5361.0,5361
615.742,5211.0,5211
617.887,5349.0,5349
620.027,5422.0,5422
622.161,5190.0,5190
624.289,5389.0,5389
626.410,5232.0,5232
628.526,5231.0,5231
630.635,5400.0,5400
632.738,5413.0,5413
634.835,5299.0,5299
636.926,5311.0,5311
639.011,5166.0,5166
641.089,5346.0,5346
643.162,5319.0,5319
645.228,5303.0,5303
647.288,5426.0,5426
649.341,5338.0,5338
651.389,5363.0,5363
653.430,5359.0,5359
655.465,5305.0,5305
657.494,5365.0,5365
659.516,5302.0,5302
661.532,5321.0,5321
663.542,5409.0,5409
665.546,5303.0,5303
667.543,5239.0,5239
669.535,5383.0,5383
671.519,5240.0,5240
673.498,5378.0,5378
675.470,5350.0,5350
677.436,5285.0,5285
679.396,5387.0,5387
681.349,5341.0,5341
683.296,5331.0,5331
685.236,5373.0,5373
687.171,5264.0,5264
689.099,5416.0,5416
691.020,5292.0,5292
692.935,5336.0,5336
694.844,5371.0,5371
696.747,5301.0,5301
698.643,5322.0,5322
700.533,5435.0,5435
702.416,5284.0,5284
704.293,5305.0,5305
706.164,5317.0,5317
708.029,5321.0,5321
709.887,5449.0,5449
711.738,5315.0,5315
713.584,5316.0,5316
715.423,5460.0,5460
717.255,5281.0,5281
719.082,5394.0,5394
720.901,5306.0,5306
722.715,5316.0,5316
724.522,5381.0,5381
726.323,5320.0,5320
728.117,5379.0,5379
729.905,5338.0,5338
731.687,5249.0,5249
733.462,5366.0,5366
735.232,5310.0,5310
736.994,5268.0,5268
738.751,5440.0,5440
740.501,5302.0,5302
742.244,5283.0,5283
743.982,5360.0,5360
745.713,5385.0,5385
747.437,5410.0,5410
749.156,5320.0,5320
750.868,5265.0,5265
752.573,5371.0,5371
754.273,5287.0,5287
755.966,5351.0,5351
757.653,5355.0,5355
759.333,5214.0,5214
761.008,5364.0,5364
762.676,5347.0,5347
764.337,5360.0,5360
765.993,5389.0,5389
767.642,5261.0,5261
769.285,5324.0,5324
770.922,5406.0,5406
772.552,5241.0,5241
774.176,5406.0,5406
775.795,5299.0,5299
777.406,5298.0,5298
779.012,5377.0,5377
780.611,5294.0,5294
782.205,5319.0,5319
783.792,5368.0,5368
785.373,5290.0,5290
786.947,5378.0,5378
788.516,5321.0,5321
790.078,5326.0,5326
791.635,5359.0,5359
793.185,5386.0,5386
794.729,5320.0,5320
796.267,5418.0,5418
797.799,5257.0,5257
799.325,5360.0,5360
800.844,5260.0,5260
802.358,5292.0,5292
803.866,5348.0,5348
805.368,5353.0,5353
806.863,5218.0,5218
808.353,5459.0,5459
809.836,5259.0,5259
811.314,5344.0,5344
812.786,5330.0,5330
814.252,5349.0,5349
815.711,5426.0,5426
817.165,5246.0,5246
818.613,5288.0,5288
820.055,5409.0,5409
821.491,5219.0,5219
822.922,5485.0,5485
824.346,5299.0,5299
825.765,5266.0,5266
827.178,5385.0,5385
828.585,5291.0,5291
829.986,5335.0,5335
831.381,5442.0,5442
832.771,5202.0,5202
834.155,5381.0,5381
835.533,5384.0,5384
836.906,5284.0,5284
838.272,5378.0,5378
839.633,5334.0,5334
840.989,5299.0,5299
842.339,5404.0,5404
843.683,5374.0,5374
845.021,5368.0,5368
846.354,5344.0,5344
847.682,5296.0,5296
849.004,5466.0,5466
850.320,5368.0,5368
851.631,5306.0,5306
852.936,5395.0,5395
854.236,5308.0,5308
855.530,5484.0,5484
856.819,5437.0,5437
858.102,5271.0,5271
859.380,5431.0,5431
860.653,5305.0,5305
861.920,5389.0,5389
863.182,5489.0,5489
864.439,5244.0,5244
865.690,5356.0,5356
866.936,5347.0,5347
868.177,5308.0,5308
869.412,5512.0,5512
870.642,5268.0,5268
871.867,5329.0,5329
873.087,5456.0,5456
874.302,5312.0,5312
875.512,5419.0,5419
876.716,5386.0,5386
877.916,5232.0,5232
879.110,5431.0,5431
880.299,5351.0,5351
881.483,5298.0,5298
882.663,5377.0,5377
883.837,5287.0,5287
885.006,5396.0,5396
886.170,5359.0,5359
887.330,5388.0,5388
888.484,5422.0,5422
