Wavelength[nm],Average,1
320.469,5405.0,5405
323.166,5312.0,5312
325.861,5335.0,5335
328.553,5228.0,5228
331.243,5341.0,5341
333.930,5297.0,5297
336.615,5328.0,5328
339.297,5373.0,5373
341.976,5276.0,5276
344.653,5284.0,5284
347.327,5389.0,5389
349.998,5310.0,5310
352.666,5310.0,5310
355.331,5316.0,5316
357.994,5339.0,5339
360.653,5413.0,5413
363.309,5253.0,5253
365.962,5313.0,5313
368.612,5340.0,5340
371.259,5350.0,5350
373.903,5462.0,5462
376.543,5251.0,5251
379.180,5243.0,5243
381.813,5393.0,5393
384.443,5290.0,5290
387.070,5369.0,5369
389.693,5447.0,5447
392.313,5276.0,5276
394.929,5329.0,5329
397.541,5286.0,5286
400.150,5376.0,5376
402.755,5445.0,5445
405.356,5285.0,5285
407.954,5243.0,5243
410.547,5302.0,5302
413.137,5260.0,5260
415.723,5308.0,5308
418.305,5347.0,5347
420.883,5353.0,5353
423.457,5357.0,5357
426.027,5283.0,5283
428.593,5383.0,5383
431.154,5359.0,5359
433.712,5178.0,5178
436.265,5424.0,5424
438.814,5311.0,5311
441.359,5395.0,5395
443.900,5382.0,5382
446.436,5264.0,5264
448.967,5272.0,5272
451.495,5314.0,5314
454.018,5237.0,5237
456.536,5369.0,5369
459.050,5271.0,5271
461.559,5262.0,5262
464.064,5367.0,5367
466.564,5249.0,5249
469.060,5328.0,5328
471.551,5363.0,5363
474.037,5299.0,5299
476.518,5446.0,5446
478.995,5306.0,5306
481.467,5294.0,5294
483.934,5367.0,5367
486.396,5226.0,5226
488.853,5261.0,5261
491.305,5458.0,5458
493.753,5257.0,5257
496.195,5445.0,5445
498.632,5321.0,5321
501.065,5295.0,5295
503.492,5442.0,5442
505.914,5304.0,5304
508.332,5290.0,5290
510.743,5429.0,5429
513.150,5241.0,5241
515.552,5446.0,5446
517.948,5377.0,5377
520.339,5289.0,5289
522.725,5360.0,5360
525.106,5380.0,5380
527.481,5314.0,5314
529.851,5410.0,5410
532.216,5287.0,5287
534.575,5393.0,5393
536.929,5323.0,5323
539.277,5256.0,5256
541.620,5457.0,5457
543.957,5291.0,5291
546.289,5410.0,5410
548.616,5458.0,5458
550.936,5343.0,5343
553.252,5478.0,5478
555.561,5397.0,5397
557.865,5402.0,5402
560.164,5468.0,5468
562.457,5408.0,5408
564.744,5416.0,5416
567.025,5535.0,5535
569.301,5385.0,5385
571.571,5498.0,5498
573.835,5603.0,5603
576.093,5522.0,5522
578.346,5818.0,5818
580.593,5720.0,5720
582.834,5843.0,5843
585.069,6058.0,6058
587.299,6044.0,6044
589.522,6460.0,6460
591.740,6475.0,6475
593.952,6829.0,6829
596.158,7071.0,7071
598.358,7346.0,7346
600.551,7898.0,7898
602.739,8392.0,8392
604.922,8894.0,8894
607.098,10000.0,10000
609.268,11159.0,11159
611.432,12783.0,12783
613.590,14767.0,14767
615.742,17115.0,17115
617.887,20226.0,20226
620.027,24213.0,24213
622.161,28562.0,28562
624.289,33966.0,33966
626.410,40008.0,40008
628.526,45712.0,45712
630.635,50952.0,50952
632.738,55759.0,55759
634.835,59310.0,59310
636.926,61229.0,61229
639.011,61599.0,61599
641.089,61445.0,61445
643.162,57616.0,57616
645.228,52604.0,52604
647.288,49639.0,49639
649.341,47265.0,47265
651.389,44715.0,44715
653.430,41749.0,41749
655.465,37121.0,37121
657.494,31262.0,31262
659.516,24962.0,24962
661.532,20009.0,20009
663.542,16296.0,16296
665.546,12994.0,12994
667.543,10831.0,10831
669.535,9361.0,9361
671.519,7843.0,7843
673.498,7223.0,7223
675.470,6716.0,6716
677.436,6221.0,6221
679.396,6028.0,6028
681.349,5839.0,5839
683.296,5717.0,5717
685.236,5713.0,5713
687.171,5563.0,5563
689.099,5685.0,5685
691.020,5560.0,5560
692.935,5613.0,5613
694.844,5620.0,5620
696.747,5549.0,5549
698.643,5523.0,5523
700.533,5627.0,5627
702.416,5459.0,5459
704.293,5481.0,5481
706.164,5469.0,5469
708.029,5449.0,5449
709.887,5612.0,5612
711.738,5355.0,5355
713.584,5449.0,5449
715.423,5514.0,5514
717.255,5355.0,5355
719.082,5542.0,5542
720.901,5361.0,5361
722.715,5396.0,5396
724.522,5427.0,5427
726.323,5371.0,5371
728.117,5387.0,5387
729.905,5452.0,5452
731.687,5317.0,5317
733.462,5397.0,5397
735.232,5374.0,5374
736.994,5427.0,5427
738.751,5424.0,5424
740.501,5365.0,5365
742.244,5323.0,5323
743.982,5429.0,5429
745.713,5428.0,5428
747.437,5453.0,5453
749.156,5372.0,5372
750.868,5346.0,5346
752.573,5468.0,5468
754.273,5354.0,5354
755.966,5450.0,5450
757.653,5377.0,5377
759.333,5200.0,5200
761.008,5438.0,5438
762.676,5347.0,5347
764.337,5335.0,5335
765.993,5388.0,5388
767.642,5299.0,5299
769.285,5314.0,5314
770.922,5349.0,5349
772.552,5283.0,5283
774.176,5417.0,5417
775.795,5365.0,5365
777.406,5301.0,5301
779.012,5420.0,5420
780.611,5390.0,5390
782.205,5272.0,5272
783.792,5377.0,5377
785.373,5311.0,5311
786.947,5390.0,5390
788.516,5319.0,5319
790.078,5354.0,5354
791.635,5346.0,5346
793.185,5345.0,5345
794.729,5369.0,5369
796.267,5471.0,5471
797.799,5331.0,5331
799.325,5339.0,5339
800.844,5337.0,5337
802.358,5341.0,5341
803.866,5393.0,5393
805.368,5350.0,5350
806.863,5301.0,5301
808.353,5544.0,5544
809.836,5308.0,5308
811.314,5393.0,5393
812.786,5332.0,5332
814.252,5347.0,5347
815.711,5473.0,5473
817.165,5318.0,5318
818.613,5325.0,5325
820.055,5438.0,5438
821.491,5296.0,5296
822.922,5487.0,5487
824.346,5363.0,5363
825.765,5404.0,5404
827.178,5501.0,5501
828.585,5362.0,5362
829.986,5395.0,5395
831.381,5467.0,5467
832.771,5238.0,5238
834.155,5434.0,5434
835.533,5481.0,5481
836.906,5370.0,5370
838.272,5502.0,5502
839.633,5417.0,5417
840.989,5391.0,5391
842.339,5565.0,5565
843.683,5464.0,5464
845.021,5481.0,5481
846.354,5460.0,5460
847.682,5379.0,5379
849.004,5585.0,5585
850.320,5476.0,5476
851.631,5415.0,5415
852.936,5545.0,5545
854.236,5393.0,5393
855.530,5561.0,5561
856.819,5545.0,5545
858.102,5463.0,5463
859.380,5551.0,5551
860.653,5448.0,5448
861.920,5466.0,5466
863.182,5737.0,5737
864.439,5378.0,5378
865.690,5498.0,5498
866.936,5510.0,5510
868.177,5452.0,5452
869.412,5602.0,5602
870.642,5479.0,5479
871.867,5523.0,5523
873.087,5557.0,5557
874.302,5505.0,5505
875.512,5589.0,5589
876.716,5510.0,5510
877.916,5488.0,5488
879.110,5620.0,5620
880.299,5516.0,5516
881.483,5503.0,5503
882.663,5591.0,5591
883.837,5428.0,5428
885.006,5621.0,5621
886.170,5549.0,5549
887.330,5459.0,5459
888.484,5570.0,5570
