Wavelength[nm],Average,1
320.469,5428.0,5428
323.166,5339.0,5339
325.861,5429.0,5429
328.553,5250.0,5250
331.243,5413.0,5413
333.930,5309.0,5309
336.615,5372.0,5372
339.297,5432.0,5432
341.976,5352.0,5352
344.653,5389.0,5389
347.327,5373.0,5373
349.998,5337.0,5337
352.666,5368.0,5368
355.331,5297.0,5297
357.994,5446.0,5446
360.653,5523.0,5523
363.309,5358.0,5358
365.962,5510.0,5510
368.612,5523.0,5523
371.259,5482.0,5482
373.903,5725.0,5725
376.543,5768.0,5768
379.180,6118.0,6118
381.813,6931.0,6931
384.443,8003.0,8003
387.070,10620.0,10620
389.693,14865.0,14865
392.313,22244.0,22244
394.929,33367.0,33367
397.541,47326.0,47326
400.150,57554.0,57554
402.755,60611.0,60611
405.356,58548.0,58548
407.954,48278.0,48278
410.547,37074.0,37074
413.137,27610.0,27610
415.723,20978.0,20978
418.305,16036.0,16036
420.883,12595.0,12595
423.457,10306.0,10306
426.027,8715.0,8715
428.593,7691.0,7691
431.154,7074.0,7074
433.712,6454.0,6454
436.265,6302.0,6302
438.814,5991.0,5991
441.359,5803.0,5803
443.900,5724.0,5724
446.436,5539.0,5539
448.967,5526.0,5526
451.495,5572.0,5572
454.018,5399.0,5399
456.536,5467.0,5467
459.050,5390.0,5390
461.559,5339.0,5339
464.064,5422.0,5422
466.564,5358.0,5358
469.060,5414.0,5414
471.551,5379.0,5379
474.037,5358.0,5358
476.518,5471.0,5471
478.995,5353.0,5353
481.467,5311.0,5311
483.934,5419.0,5419
486.396,5302.0,5302
488.853,5360.0,5360
491.305,5414.0,5414
493.753,5280.0,5280
496.195,5384.0,5384
498.632,5341.0,5341
501.065,5320.0,5320
503.492,5423.0,5423
505.914,5360.0,5360
508.332,5308.0,5308
510.743,5438.0,5438
513.150,5255.0,5255
515.552,5451.0,5451
517.948,5418.0,5418
520.339,5276.0,5276
522.725,5392.0,5392
525.106,5330.0,5330
527.481,5370.0,5370
529.851,5438.0,5438
532.216,5267.0,5267
534.575,5394.0,5394
536.929,5408.0,5408
539.277,5295.0,5295
541.620,5457.0,5457
543.957,5349.0,5349
546.289,5387.0,5387
548.616,5424.0,5424
550.936,5271.0,5271
553.252,5460.0,5460
555.561,5354.0,5354
557.865,5325.0,5325
560.164,5372.0,5372
562.457,5310.0,5310
564.744,5320.0,5320
567.025,5418.0,5418
569.301,5267.0,5267
571.571,5450.0,5450
573.835,5366.0,5366
576.093,5299.0,5299
578.346,5425.0,5425
580.593,5335.0,5335
582.834,5341.0,5341
585.069,5435.0,5435
587.299,5333.0,5333
589.522,5437.0,5437
591.740,5298.0,5298
593.952,5309.0,5309
596.158,5325.0,5325
598.358,5348.0,5348
600.551,5351.0,5351
602.739,5411.0,5411
604.922,5283.0,5283
607.098,5388.0,5388
609.268,5293.0,5293
611.432,5396.0,5396
613.590,5410.0,5410
615.742,5266.0,5266
617.887,5332.0,5332
620.027,5443.0,5443
622.161,5232.0,5232
624.289,5402.0,5402
626.410,5318.0,5318
628.526,5230.0,5230
630.635,5414.0,5414
632.738,5402.0,5402
634.835,5312.0,5312
636.926,5413.0,5413
639.011,5210.0,5210
641.089,5387.0,5387
643.162,5329.0,5329
645.228,5285.0,5285
647.288,5462.0,5462
649.341,5391.0,5391
651.389,5363.0,5363
653.430,5428.0,5428
655.465,5361.0,5361
657.494,5362.0,5362
659.516,5321.0,5321
661.532,5302.0,5302
663.542,5418.0,5418
665.546,5268.0,5268
667.543,5305.0,5305
669.535,5406.0,5406
671.519,5223.0,5223
673.498,5421.0,5421
675.470,5349.0,5349
677.436,5350.0,5350
679.396,5386.0,5386
681.349,5346.0,5346
683.296,5323.0,5323
685.236,5403.0,5403
687.171,5286.0,5286
689.099,5453.0,5453
691.020,5344.0,5344
692.935,5380.0,5380
694.844,5374.0,5374
696.747,5313.0,5313
698.643,5343.0,5343
700.533,5467.0,5467
702.416,5303.0,5303
704.293,5341.0,5341
706.164,5327.0,5327
708.029,5320.0,5320
709.887,5481.0,5481
711.738,5295.0,5295
713.584,5338.0,5338
715.423,5375.0,5375
717.255,5256.0,5256
719.082,5450.0,5450
720.901,5256.0,5256
722.715,5319.0,5319
724.522,5310.0,5310
726.323,5353.0,5353
728.117,5339.0,5339
729.905,5374.0,5374
731.687,5279.0,5279
733.462,5375.0,5375
735.232,5297.0,5297
736.994,5283.0,5283
738.751,5436.0,5436
740.501,5274.0,5274
742.244,5289.0,5289
743.982,5348.0,5348
745.713,5359.0,5359
747.437,5345.0,5345
749.156,5361.0,5361
750.868,5278.0,5278
752.573,5383.0,5383
754.273,5291.0,5291
755.966,5345.0,5345
757.653,5358.0,5358
759.333,5227.0,5227
761.008,5378.0,5378
762.676,5357.0,5357
764.337,5339.0,5339
765.993,5425.0,5425
767.642,5316.0,5316
769.285,5275.0,5275
770.922,5402.0,5402
772.552,5226.0,5226
774.176,5381.0,5381
775.795,5331.0,5331
777.406,5320.0,5320
779.012,5444.0,5444
780.611,5333.0,5333
782.205,5312.0,5312
783.792,5403.0,5403
785.373,5305.0,5305
786.947,5378.0,5378
788.516,5354.0,5354
790.078,5293.0,5293
791.635,5392.0,5392
793.185,5345.0,5345
794.729,5373.0,5373
796.267,5386.0,5386
797.799,5319.0,5319
799.325,5342.0,5342
800.844,5352.0,5352
802.358,5258.0,5258
803.866,5406.0,5406
805.368,5347.0,5347
806.863,5266.0,5266
808.353,5431.0,5431
809.836,5274.0,5274
811.314,5279.0,5279
812.786,5371.0,5371
814.252,5409.0,5409
815.711,5406.0,5406
817.165,5295.0,5295
818.613,5258.0,5258
820.055,5429.0,5429
821.491,5276.0,5276
822.922,5469.0,5469
824.346,5328.0,5328
825.765,5354.0,5354
827.178,5419.0,5419
828.585,5301.0,5301
829.986,5447.0,5447
831.381,5483.0,5483
832.771,5250.0,5250
834.155,5396.0,5396
835.533,5443.0,5443
836.906,5327.0,5327
838.272,5457.0,5457
839.633,5399.0,5399
840.989,5362.0,5362
842.339,5421.0,5421
843.683,5410.0,5410
845.021,5430.0,5430
846.354,5412.0,5412
847.682,5325.0,5325
849.004,5499.0,5499
850.320,5453.0,5453
851.631,5371.0,5371
852.936,5530.0,5530
854.236,5353.0,5353
855.530,5513.0,5513
856.819,5466.0,5466
858.102,5300.0,5300
859.380,5438.0,5438
860.653,5415.0,5415
861.920,5427.0,5427
863.182,5568.0,5568
864.439,5322.0,5322
865.690,5403.0,5403
866.936,5432.0,5432
868.177,5371.0,5371
869.412,5543.0,5543
870.642,5385.0,5385
871.867,5379.0,5379
873.087,5431.0,5431
874.302,5392.0,5392
875.512,5489.0,5489
876.716,5441.0,5441
877.916,5321.0,5321
879.110,5420.0,5420
880.299,5356.0,5356
881.483,5362.0,5362
882.663,5423.0,5423
883.837,5347.0,5347
885.006,5566.0,5566
886.170,5546.0,5546
887.330,5375.0,5375
888.484,5469.0,5469
