Wavelength[nm],Average,1
320.469,5372.0,5372
323.166,5338.0,5338
325.861,5374.0,5374
328.553,5283.0,5283
331.243,5419.0,5419
333.930,5320.0,5320
336.615,5309.0,5309
339.297,5442.0,5442
341.976,5294.0,5294
344.653,5292.0,5292
347.327,5377.0,5377
349.998,5300.0,5300
352.666,5349.0,5349
355.331,5280.0,5280
357.994,5275.0,5275
360.653,5369.0,5369
363.309,5245.0,5245
365.962,5301.0,5301
368.612,5351.0,5351
371.259,5264.0,5264
373.903,5366.0,5366
376.543,5271.0,5271
379.180,5236.0,5236
381.813,5427.0,5427
384.443,5291.0,5291
387.070,5308.0,5308
389.693,5473.0,5473
392.313,5283.0,5283
394.929,5327.0,5327
397.541,5339.0,5339
400.150,5392.0,5392
402.755,5393.0,5393
405.356,5354.0,5354
407.954,5328.0,5328
410.547,5320.0,5320
413.137,5289.0,5289
415.723,5341.0,5341
418.305,5325.0,5325
420.883,5283.0,5283
423.457,5451.0,5451
426.027,5328.0,5328
428.593,5378.0,5378
431.154,5401.0,5401
433.712,5200.0,5200
436.265,5422.0,5422
438.814,5367.0,5367
441.359,5307.0,5307
443.900,5365.0,5365
446.436,5214.0,5214
448.967,5326.0,5326
451.495,5383.0,5383
454.018,5204.0,5204
456.536,5356.0,5356
459.050,5285.0,5285
461.559,5301.0,5301
464.064,5339.0,5339
466.564,5257.0,5257
469.060,5316.0,5316
471.551,5345.0,5345
474.037,5281.0,5281
476.518,5413.0,5413
478.995,5245.0,5245
481.467,5324.0,5324
483.934,5380.0,5380
486.396,5230.0,5230
488.853,5282.0,5282
491.305,5367.0,5367
493.753,5145.0,5145
496.195,5326.0,5326
498.632,5253.0,5253
501.065,5236.0,5236
503.492,5380.0,5380
505.914,5276.0,5276
508.332,5266.0,5266
510.743,5320.0,5320
513.150,5213.0,5213
515.552,5423.0,5423
517.948,5363.0,5363
520.339,5252.0,5252
522.725,5367.0,5367
525.106,5313.0,5313
527.481,5299.0,5299
529.851,5390.0,5390
532.216,5175.0,5175
534.575,5336.0,5336
536.929,5283.0,5283
539.277,5267.0,5267
541.620,5415.0,5415
543.957,5281.0,5281
546.289,5319.0,5319
548.616,5396.0,5396
550.936,5226.0,5226
553.252,5400.0,5400
555.561,5300.0,5300
557.865,5257.0,5257
560.164,5336.0,5336
562.457,5272.0,5272
564.744,5297.0,5297
567.025,5336.0,5336
569.301,5213.0,5213
571.571,5368.0,5368
573.835,5337.0,5337
576.093,5231.0,5231
578.346,5398.0,5398
580.593,5273.0,5273
582.834,5236.0,5236
585.069,5410.0,5410
587.299,5260.0,5260
589.522,5454.0,5454
591.740,5252.0,5252
593.952,5300.0,5300
596.158,5259.0,5259
598.358,5332.0,5332
600.551,5361.0,5361
602.739,5348.0,5348
604.922,5191.0,5191
607.098,5277.0,5277
609.268,5268.0,5268
611.432,5381.0,5381
613.590,5397.0,5397
615.742,5199.0,5199
617.887,5323.0,5323
620.027,5423.0,5423
622.161,5206.0,5206
624.289,5341.0,5341
626.410,5272.0,5272
628.526,5200.0,5200
630.635,5407.0,5407
632.738,5395.0,5395
634.835,5303.0,5303
636.926,5348.0,5348
639.011,5218.0,5218
641.089,5396.0,5396
643.162,5373.0,5373
645.228,5359.0,5359
647.288,5488.0,5488
649.341,5322.0,5322
651.389,5390.0,5390
653.430,5379.0,5379
655.465,5298.0,5298
657.494,5396.0,5396
659.516,5367.0,5367
661.532,5334.0,5334
663.542,5415.0,5415
665.546,5264.0,5264
667.543,5273.0,5273
669.535,5366.0,5366
671.519,5191.0,5191
673.498,5452.0,5452
675.470,5403.0,5403
677.436,5291.0,5291
679.396,5418.0,5418
681.349,5335.0,5335
683.296,5363.0,5363
685.236,5418.0,5418
687.171,5277.0,5277
689.099,5465.0,5465
691.020,5364.0,5364
692.935,5391.0,5391
694.844,5390.0,5390
696.747,5369.0,5369
698.643,5391.0,5391
700.533,5442.0,5442
702.416,5335.0,5335
704.293,5342.0,5342
706.164,5328.0,5328
708.029,5351.0,5351
709.887,5470.0,5470
711.738,5346.0,5346
713.584,5388.0,5388
715.423,5486.0,5486
717.255,5325.0,5325
719.082,5425.0,5425
720.901,5341.0,5341
722.715,5333.0,5333
724.522,5385.0,5385
726.323,5344.0,5344
728.117,5428.0,5428
729.905,5469.0,5469
731.687,5289.0,5289
733.462,5373.0,5373
735.232,5287.0,5287
736.994,5391.0,5391
738.751,5500.0,5500
740.501,5353.0,5353
742.244,5318.0,5318
743.982,5430.0,5430
745.713,5398.0,5398
747.437,5443.0,5443
749.156,5444.0,5444
750.868,5325.0,5325
752.573,5443.0,5443
754.273,5364.0,5364
755.966,5386.0,5386
757.653,5440.0,5440
759.333,5285.0,5285
761.008,5416.0,5416
762.676,5428.0,5428
764.337,5346.0,5346
765.993,5408.0,5408
767.642,5290.0,5290
769.285,5364.0,5364
770.922,5409.0,5409
772.552,5284.0,5284
774.176,5430.0,5430
775.795,5350.0,5350
777.406,5363.0,5363
779.012,5374.0,5374
780.611,5357.0,5357
782.205,5335.0,5335
783.792,5367.0,5367
785.373,5321.0,5321
786.947,5444.0,5444
788.516,5297.0,5297
790.078,5300.0,5300
791.635,5440.0,5440
793.185,5316.0,5316
794.729,5298.0,5298
796.267,5400.0,5400
797.799,5297.0,5297
799.325,5388.0,5388
800.844,5332.0,5332
802.358,5327.0,5327
803.866,5316.0,5316
805.368,5383.0,5383
806.863,5286.0,5286
808.353,5495.0,5495
809.836,5257.0,5257
811.314,5370.0,5370
812.786,5351.0,5351
814.252,5316.0,5316
815.711,5369.0,5369
817.165,5321.0,5321
818.613,5282.0,5282
820.055,5380.0,5380
821.491,5237.0,5237
822.922,5433.0,5433
824.346,5332.0,5332
825.765,5329.0,5329
827.178,5446.0,5446
828.585,5279.0,5279
829.986,5292.0,5292
831.381,5391.0,5391
832.771,5187.0,5187
834.155,5357.0,5357
835.533,5395.0,5395
836.906,5300.0,5300
838.272,5480.0,5480
839.633,5275.0,5275
840.989,5292.0,5292
842.339,5382.0,5382
843.683,5324.0,5324
845.021,5352.0,5352
846.354,5371.0,5371
847.682,5292.0,5292
849.004,5400.0,5400
850.320,5402.0,5402
851.631,5231.0,5231
852.936,5410.0,5410
854.236,5305.0,5305
855.530,5420.0,5420
856.819,5423.0,5423
858.102,5300.0,5300
859.380,5445.0,5445
860.653,5370.0,5370
861.920,5338.0,5338
863.182,5527.0,5527
864.439,5259.0,5259
865.690,5371.0,5371
866.936,5406.0,5406
868.177,5355.0,5355
869.412,5449.0,5449
870.642,5347.0,5347
871.867,5369.0,5369
873.087,5437.0,5437
874.302,5341.0,5341
875.512,5421.0,5421
876.716,5343.0,5343
877.916,5278.0,5278
879.110,5391.0,5391
880.299,5371.0,5371
881.483,5367.0,5367
882.663,5360.0,5360
883.837,5279.0,5279
885.006,5425.0,5425
886.170,5385.0,5385
887.330,5328.0,5328
888.484,5379.0,5379
