Wavelength[nm],Average,1
320.469,5424.0,5424
323.166,5321.0,5321
325.861,5397.0,5397
328.553,5240.0,5240
331.243,5411.0,5411
333.930,5274.0,5274
336.615,5330.0,5330
339.297,5379.0,5379
341.976,5287.0,5287
344.653,5304.0,5304
347.327,5405.0,5405
349.998,5357.0,5357
352.666,5360.0,5360
355.331,5346.0,5346
357.994,5340.0,5340
360.653,5443.0,5443
363.309,5334.0,5334
365.962,5363.0,5363
368.612,5353.0,5353
371.259,5346.0,5346
373.903,5446.0,5446
376.543,5316.0,5316
379.180,5300.0,5300
381.813,5426.0,5426
384.443,5291.0,5291
387.070,5365.0,5365
389.693,5456.0,5456
392.313,5302.0,5302
394.929,5438.0,5438
397.541,5381.0,5381
400.150,5393.0,5393
402.755,5404.0,5404
405.356,5352.0,5352
407.954,5337.0,5337
410.547,5339.0,5339
413.137,5290.0,5290
415.723,5359.0,5359
418.305,5374.0,5374
420.883,5307.0,5307
423.457,5489.0,5489
426.027,5345.0,5345
428.593,5439.0,5439
431.154,5406.0,5406
433.712,5245.0,5245
436.265,5462.0,5462
438.814,5370.0,5370
441.359,5328.0,5328
443.900,5414.0,5414
446.436,5252.0,5252
448.967,5311.0,5311
451.495,5409.0,5409
454.018,5232.0,5232
456.536,5401.0,5401
459.050,5358.0,5358
461.559,5332.0,5332
464.064,5372.0,5372
466.564,5286.0,5286
469.060,5365.0,5365
471.551,5367.0,5367
474.037,5344.0,5344
476.518,5445.0,5445
478.995,5291.0,5291
481.467,5341.0,5341
483.934,5436.0,5436
486.396,5285.0,5285
488.853,5318.0,5318
491.305,5402.0,5402
493.753,5205.0,5205
496.195,5403.0,5403
498.632,5303.0,5303
501.065,5327.0,5327
503.492,5421.0,5421
505.914,5306.0,5306
508.332,5289.0,5289
510.743,5415.0,5415
513.150,5266.0,5266
515.552,5439.0,5439
517.948,5413.0,5413
520.339,5286.0,5286
522.725,5444.0,5444
525.106,5385.0,5385
527.481,5342.0,5342
529.851,5462.0,5462
532.216,5254.0,5254
534.575,5395.0,5395
536.929,5381.0,5381
539.277,5235.0,5235
541.620,5467.0,5467
543.957,5276.0,5276
546.289,5339.0,5339
548.616,5402.0,5402
550.936,5231.0,5231
553.252,5348.0,5348
555.561,5301.0,5301
557.865,5275.0,5275
560.164,5323.0,5323
562.457,5266.0,5266
564.744,5251.0,5251
567.025,5352.0,5352
569.301,5241.0,5241
571.571,5344.0,5344
573.835,5345.0,5345
576.093,5280.0,5280
578.346,5390.0,5390
580.593,5248.0,5248
582.834,5293.0,5293
585.069,5372.0,5372
587.299,5196.0,5196
589.522,5386.0,5386
591.740,5219.0,5219
593.952,5331.0,5331
596.158,5301.0,5301
598.358,5323.0,5323
600.551,5299.0,5299
602.739,5281.0,5281
604.922,5189.0,5189
607.098,5318.0,5318
609.268,5322.0,5322
611.432,5304.0,5304
613.590,5422.0,5422
615.742,5230.0,5230
617.887,5296.0,5296
620.027,5392.0,5392
622.161,5221.0,5221
624.289,5365.0,5365
626.410,5310.0,5310
628.526,5196.0,5196
630.635,5358.0,5358
632.738,5356.0,5356
634.835,5342.0,5342
636.926,5350.0,5350
639.011,5206.0,5206
641.089,5426.0,5426
643.162,5364.0,5364
645.228,5324.0,5324
647.288,5446.0,5446
649.341,5291.0,5291
651.389,5335.0,5335
653.430,5366.0,5366
655.465,5306.0,5306
657.494,5344.0,5344
659.516,5354.0,5354
661.532,5318.0,5318
663.542,5405.0,5405
665.546,5298.0,5298
667.543,5273.0,5273
669.535,5386.0,5386
671.519,5247.0,5247
673.498,5439.0,5439
675.470,5405.0,5405
677.436,5323.0,5323
679.396,5370.0,5370
681.349,5347.0,5347
683.296,5367.0,5367
685.236,5382.0,5382
687.171,5304.0,5304
689.099,5496.0,5496
691.020,5340.0,5340
692.935,5375.0,5375
694.844,5392.0,5392
696.747,5335.0,5335
698.643,5369.0,5369
700.533,5511.0,5511
702.416,5309.0,5309
704.293,5345.0,5345
706.164,5360.0,5360
708.029,5365.0,5365
709.887,5491.0,5491
711.738,5331.0,5331
713.584,5339.0,5339
715.423,5510.0,5510
717.255,5283.0,5283
719.082,5412.0,5412
720.901,5306.0,5306
722.715,5337.0,5337
724.522,5434.0,5434
726.323,5352.0,5352
728.117,5412.0,5412
729.905,5471.0,5471
731.687,5316.0,5316
733.462,5451.0,5451
735.232,5362.0,5362
736.994,5395.0,5395
738.751,5468.0,5468
740.501,5324.0,5324
742.244,5325.0,5325
743.982,5453.0,5453
745.713,5414.0,5414
747.437,5501.0,5501
749.156,5418.0,5418
750.868,5316.0,5316
752.573,5450.0,5450
754.273,5326.0,5326
755.966,5397.0,5397
757.653,5388.0,5388
759.333,5289.0,5289
761.008,5440.0,5440
762.676,5378.0,5378
764.337,5339.0,5339
765.993,5427.0,5427
767.642,5305.0,5305
769.285,5320.0,5320
770.922,5401.0,5401
772.552,5319.0,5319
774.176,5400.0,5400
775.795,5385.0,5385
777.406,5323.0,5323
779.012,5461.0,5461
780.611,5384.0,5384
782.205,5323.0,5323
783.792,5428.0,5428
785.373,5297.0,5297
786.947,5411.0,5411
788.516,5294.0,5294
790.078,5304.0,5304
791.635,5377.0,5377
793.185,5317.0,5317
794.729,5275.0,5275
796.267,5375.0,5375
797.799,5314.0,5314
799.325,5313.0,5313
800.844,5332.0,5332
802.358,5260.0,5260
803.866,5368.0,5368
805.368,5325.0,5325
806.863,5236.0,5236
808.353,5464.0,5464
809.836,5237.0,5237
811.314,5310.0,5310
812.786,5321.0,5321
814.252,5330.0,5330
815.711,5429.0,5429
817.165,5300.0,5300
818.613,5294.0,5294
820.055,5410.0,5410
821.491,5218.0,5218
822.922,5393.0,5393
824.346,5255.0,5255
825.765,5269.0,5269
827.178,5430.0,5430
828.585,5299.0,5299
829.986,5349.0,5349
831.381,5410.0,5410
832.771,5228.0,5228
834.155,5341.0,5341
835.533,5305.0,5305
836.906,5295.0,5295
838.272,5433.0,5433
839.633,5325.0,5325
840.989,5291.0,5291
842.339,5345.0,5345
843.683,5325.0,5325
845.021,5360.0,5360
846.354,5361.0,5361
847.682,5262.0,5262
849.004,5443.0,5443
850.320,5372.0,5372
851.631,5274.0,5274
852.936,5423.0,5423
854.236,5257.0,5257
855.530,5424.0,5424
856.819,5400.0,5400
858.102,5300.0,5300
859.380,5466.0,5466
860.653,5303.0,5303
861.920,5304.0,5304
863.182,5478.0,5478
864.439,5254.0,5254
865.690,5357.0,5357
866.936,5383.0,5383
868.177,5300.0,5300
869.412,5466.0,5466
870.642,5303.0,5303
871.867,5308.0,5308
873.087,5360.0,5360
874.302,5328.0,5328
875.512,5372.0,5372
876.716,5338.0,5338
877.916,5272.0,5272
879.110,5371.0,5371
880.299,5321.0,5321
881.483,5331.0,5331
882.663,5359.0,5359
883.837,5241.0,5241
885.006,5422.0,5422
886.170,5364.0,5364
887.330,5304.0,5304
888.484,5414.0,5414
